# P(k)  H0=0.7 Om0=0.3 Ob0=0.05 Ol0=0.7 Sigma8=0.8154 n_s=0.96
# k  P(k)  P_noOsc(k) 
    0.000499       8594.83       8536.66
    0.000998         16376         16266
    0.001497       23489.4       23347.2
    0.001996       29943.3       29795.3
    0.002495         35765       35638.1
    0.002994       40994.2       40911.8
    0.003493       45675.2       45656.8
    0.003992       49852.6       49913.1
    0.004491       53568.8       53719.3
     0.00499       56863.1         57111
    0.005489       59771.1       60120.4
    0.005988       62325.1       62776.6
    0.006487         64554       65105.3
    0.006986       66483.6       67129.1
    0.007485       68137.1       68867.8
    0.007984       69535.3         70339
    0.008483       70697.1       71558.3
    0.008982       71639.4       72539.8
    0.009481       72377.8       73296.6
     0.00998       72926.6       73841.4
    0.010479       73298.9       74186.5
    0.010978       73507.2       74344.5
    0.011477         73563       74328.3
    0.011976       73477.5       74151.6
    0.012475       73261.2       73828.4
    0.012974       72924.4       73373.3
    0.013473         72477       72801.2
    0.013972       71928.8         72127
    0.014471         71289       71365.6
     0.01497       70567.1       70531.2
    0.015469       69771.8       69637.4
    0.015968         68912       68696.9
    0.016467       67996.1       67721.1
    0.016966       67032.3       66720.4
    0.017465       66028.4       65703.8
    0.017964       64991.9       64679.1
    0.018463         63930       63652.9
    0.018962       62849.2       62630.7
    0.019461       61755.9       61616.8
     0.01996       60655.8       60614.9
    0.020459       59554.2       59627.6
    0.020958       58455.8       58657.1
    0.021457       57365.2       57704.7
    0.021956         56286       56771.5
    0.022455       55221.7       55858.1
    0.022954       54175.3       54964.9
    0.023453       53149.2       54091.9
    0.023952       52145.7       53238.9
    0.024451       51166.5       52405.7
     0.02495       50212.9         51592
    0.025449       49286.1       50797.2
    0.025948       48386.9         50021
    0.026447       47515.9       49262.6
    0.026946       46673.4       48521.7
    0.027445       45859.6       47797.6
    0.027944       45074.3       47089.8
    0.028443       44317.4       46397.7
    0.028942       43588.7       45720.9
    0.029441       42887.6       45058.7
     0.02994       42213.7       44410.8
    0.030439       41566.4       43776.6
    0.030938       40944.9       43155.6
    0.031437       40348.7       42547.5
    0.031936       39776.9       41951.8
    0.032435       39228.8       41368.1
    0.032934       38703.6       40796.1
    0.033433       38200.3       40235.3
    0.033932       37718.3       39685.6
    0.034431       37256.5       39146.4
     0.03493       36814.1       38617.6
    0.035429       36390.3       38098.8
    0.035928       35984.2       37589.7
    0.036427       35594.7       37090.2
    0.036926       35221.1       36599.8
    0.037425       34862.5       36118.5
    0.037924       34517.8       35645.9
    0.038423       34186.3       35181.8
    0.038922       33866.9         34726
    0.039421       33558.9       34278.4
     0.03992       33261.2       33838.6
    0.040419         32973       33406.6
    0.040918       32693.3       32982.1
    0.041417       32421.3         32565
    0.041916       32156.1         32155
    0.042415       31896.9       31752.1
    0.042914       31642.7       31356.1
    0.043413       31392.7       30966.7
    0.043912       31146.2       30583.9
    0.044411       30902.3       30207.6
     0.04491       30660.2       29837.5
    0.045409       30419.2       29473.6
    0.045908       30178.7       29115.7
    0.046407       29937.9       28763.6
    0.046906       29696.2       28417.4
    0.047405       29453.1       28076.8
    0.047904       29207.9       27741.7
    0.048403       28960.3         27412
    0.048902       28709.7       27087.6
    0.049401       28455.7       26768.5
      0.0499       28198.1       26454.4
    0.050399       27936.6       26145.3
    0.050898       27670.8       25841.1
    0.051397       27400.7       25541.7
    0.051896       27126.1         25247
    0.052395         26847       24956.9
    0.052894       26563.3       24671.3
    0.053393       26275.2       24390.2
    0.053892       25982.7       24113.4
    0.054391         25686       23840.8
     0.05489       25385.3       23572.5
    0.055389       25080.9       23308.2
    0.055888         24773         23048
    0.056387       24461.9       22791.7
    0.056886       24148.2       22539.3
    0.057385       23832.1       22290.6
    0.057884       23514.1       22045.7
    0.058383       23194.6       21804.5
    0.058882       22874.3       21566.8
    0.059381       22553.4       21332.7
     0.05988       22232.6         21102
    0.060379       21912.4       20874.8
    0.060878       21593.3       20650.8
    0.061377       21275.8       20430.2
    0.061876       20960.5       20212.7
    0.062375       20647.7       19998.4
    0.062874       20338.2       19787.2
    0.063373       20032.3       19579.1
    0.063872       19730.4       19373.9
    0.064371       19433.1       19171.7
     0.06487       19140.8       18972.3
    0.065369       18853.9       18775.8
    0.065868       18572.6         18582
    0.066367       18297.5         18391
    0.066866       18028.8       18202.7
    0.067365       17766.7         18017
    0.067864       17511.5       17833.9
    0.068363       17263.5       17653.4
    0.068862       17022.8       17475.4
    0.069361       16789.6       17299.8
     0.06986       16563.9       17126.6
    0.070359         16346       16955.8
    0.070858       16135.7       16787.3
    0.071357       15933.2       16621.2
    0.071856       15738.4       16457.3
    0.072355       15551.3       16295.6
    0.072854       15371.9       16136.1
    0.073353       15199.9       15978.7
    0.073852       15035.4       15823.5
    0.074351       14878.2       15670.3
     0.07485         14728       15519.1
    0.075349       14584.7         15370
    0.075848       14448.1       15222.8
    0.076347         14318       15077.6
    0.076846       14194.1       14934.2
    0.077345       14076.1       14792.8
    0.077844       13963.8       14653.1
    0.078343       13856.8       14515.3
    0.078842       13754.9       14379.3
    0.079341       13657.7       14245.1
     0.07984       13564.9       14112.5
    0.080339       13476.2       13981.7
    0.080838       13391.3       13852.5
    0.081337       13309.7         13725
    0.081836       13231.2       13599.1
    0.082335       13155.5       13474.8
    0.082834       13082.1         13352
    0.083333       13010.8       13230.8
    0.083832       12941.2       13111.2
    0.084331         12873         12993
     0.08483       12805.8       12876.2
    0.085329       12739.4         12761
    0.085828       12673.5       12647.1
    0.086327       12607.7       12534.7
    0.086826       12541.9       12423.6
    0.087325       12475.7       12313.9
    0.087824       12408.9       12205.5
    0.088323       12341.2       12098.5
    0.088822       12272.6       11992.8
    0.089321       12202.7       11888.3
     0.08982       12131.4       11785.1
    0.090319       12058.5       11683.1
    0.090818         11984       11582.3
    0.091317       11907.7       11482.8
    0.091816       11829.5       11384.4
    0.092315       11749.4       11287.2
    0.092814       11667.2       11191.2
    0.093313       11583.1       11096.3
    0.093812       11496.9       11002.5
    0.094311       11408.7       10909.7
     0.09481       11318.4       10818.1
    0.095309       11226.3       10727.6
    0.095808       11132.2       10638.1
    0.096307       11036.4       10549.6
    0.096806       10938.8       10462.1
    0.097305       10839.7       10375.7
    0.097804       10739.1       10290.2
    0.098303       10637.1       10205.7
    0.098802         10534       10122.2
    0.099301       10429.9       10039.6
      0.0998       10324.8       9958.01
    0.100299       10219.1       9877.29
    0.100798       10112.9       9797.49
    0.101297       10006.3       9718.57
    0.101796       9899.49       9640.54
    0.102295       9792.74       9563.38
    0.102794       9686.18       9487.07
    0.103293          9580       9411.62
    0.103792       9474.36       9336.99
    0.104291       9369.45       9263.19
     0.10479       9265.43       9190.19
    0.105289       9162.46          9118
    0.105788       9060.71       9046.59
    0.106287       8960.31       8975.96
    0.106786       8861.41        8906.1
    0.107285       8764.14       8836.99
    0.107784       8668.62       8768.63
    0.108283       8574.97          8701
    0.108782       8483.29        8634.1
    0.109281       8393.67       8567.91
     0.10978        8306.2       8502.43
    0.110279       8220.94       8437.65
    0.110778       8137.96       8373.55
    0.111277       8057.32       8310.13
    0.111776       7979.04       8247.38
    0.112275       7903.16       8185.28
    0.112774       7829.69       8123.84
    0.113273       7758.65       8063.04
    0.113772       7690.04       8002.87
    0.114271       7623.84       7943.33
     0.11477       7560.03        7884.4
    0.115269       7498.59       7826.08
    0.115768       7439.47       7768.36
    0.116267       7382.63       7711.24
    0.116766       7328.01        7654.7
    0.117265       7275.56       7598.74
    0.117764       7225.21       7543.34
    0.118263       7176.88       7488.51
    0.118762       7130.48       7434.24
    0.119261       7085.95       7380.51
     0.11976       7043.18       7327.32
    0.120259       7002.08       7274.67
    0.120758       6962.55       7222.55
    0.121257       6924.49       7170.94
    0.121756       6887.79       7119.85
    0.122255       6852.35       7069.27
    0.122754       6818.07       7019.19
    0.123253       6784.82        6969.6
    0.123752       6752.51        6920.5
    0.124251       6721.02       6871.88
     0.12475       6690.25       6823.74
    0.125249       6660.08       6776.07
    0.125748       6630.41       6728.86
    0.126247       6601.14       6682.12
    0.126746       6572.16       6635.82
    0.127245       6543.38       6589.97
    0.127744       6514.71       6544.57
    0.128243       6486.05        6499.6
    0.128742       6457.31       6455.06
    0.129241       6428.42       6410.95
     0.12974       6399.31       6367.26
    0.130239       6369.89       6323.98
    0.130738        6340.1       6281.12
    0.131237       6309.89       6238.66
    0.131736        6279.2        6196.6
    0.132235       6247.99       6154.93
    0.132734       6216.21       6113.66
    0.133233       6183.83       6072.77
    0.133732       6150.83       6032.27
    0.134231       6117.18       5992.14
     0.13473       6082.86       5952.38
    0.135229       6047.87          5913
    0.135728       6012.21       5873.98
    0.136227       5975.88       5835.31
    0.136726       5938.89          5797
    0.137225       5901.26       5759.05
    0.137724          5863       5721.44
    0.138223       5824.15       5684.17
    0.138722       5784.73       5647.24
    0.139221       5744.78       5610.65
     0.13972       5704.33       5574.39
    0.140219       5663.44       5538.46
    0.140718       5622.14       5502.85
    0.141217       5580.48       5467.56
    0.141716       5538.53       5432.58
    0.142215       5496.33       5397.92
    0.142714       5453.93       5363.57
    0.143213        5411.4       5329.52
    0.143712       5368.79       5295.78
    0.144211       5326.15       5262.33
     0.14471       5283.56       5229.18
    0.145209       5241.06       5196.32
    0.145708       5198.72       5163.75
    0.146207       5156.59       5131.47
    0.146706       5114.72       5099.47
    0.147205       5073.18       5067.74
    0.147704          5032       5036.29
    0.148203       4991.25       5005.12
    0.148702       4950.97       4974.21
    0.149201        4911.2       4943.58
      0.1497       4871.99        4913.2
    0.150199       4833.38       4883.09
    0.150698        4795.4       4853.23
    0.151197       4758.08       4823.63
    0.151696       4721.46       4794.28
    0.152195       4685.57       4765.19
    0.152694       4650.41       4736.34
    0.153193       4616.03       4707.73
    0.153692       4582.42       4679.36
    0.154191       4549.61       4651.24
     0.15469        4517.6       4623.35
    0.155189        4486.4       4595.69
    0.155688       4456.01       4568.27
    0.156187       4426.43       4541.08
    0.156686       4397.66       4514.11
    0.157185       4369.69       4487.36
    0.157684       4342.51       4460.84
    0.158183       4316.11       4434.54
    0.158682       4290.46       4408.45
    0.159181       4265.57       4382.58
     0.15968       4241.39       4356.92
    0.160179       4217.92       4331.47
    0.160678       4195.12       4306.23
    0.161177       4172.97        4281.2
    0.161676       4151.44       4256.36
    0.162175       4130.51       4231.74
    0.162674       4110.13       4207.31
    0.163173       4090.27       4183.07
    0.163672       4070.91       4159.04
    0.164171       4052.01       4135.19
     0.16467       4033.53       4111.54
    0.165169       4015.44       4088.08
    0.165668        3997.7        4064.8
    0.166167       3980.28       4041.71
    0.166666       3963.14        4018.8
    0.167165       3946.25       3996.08
    0.167664       3929.56       3973.53
    0.168163       3913.05       3951.17
    0.168662       3896.69       3928.98
    0.169161       3880.44       3906.96
     0.16966       3864.26       3885.12
    0.170159       3848.14       3863.45
    0.170658       3832.03       3841.94
    0.171157       3815.92       3820.61
    0.171656       3799.78       3799.44
    0.172155       3783.58       3778.43
    0.172654       3767.31       3757.59
    0.173153       3750.93       3736.91
    0.173652       3734.44       3716.39
    0.174151       3717.82       3696.02
     0.17465       3701.05       3675.82
    0.175149       3684.12       3655.76
    0.175648       3667.03       3635.86
    0.176147       3649.75       3616.12
    0.176646       3632.29       3596.52
    0.177145       3614.65       3577.07
    0.177644       3596.82       3557.77
    0.178143       3578.79       3538.61
    0.178642       3560.58        3519.6
    0.179141       3542.19       3500.73
     0.17964       3523.62       3482.01
    0.180139       3504.87       3463.42
    0.180638       3485.96       3444.97
    0.181137        3466.9       3426.67
    0.181636        3447.7       3408.49
    0.182135       3428.37       3390.45
    0.182634       3408.93       3372.55
    0.183133       3389.38       3354.78
    0.183632       3369.75       3337.14
    0.184131       3350.05       3319.63
     0.18463       3330.31       3302.25
    0.185129       3310.53       3284.99
    0.185628       3290.73       3267.87
    0.186127       3270.94       3250.86
    0.186626       3251.17       3233.98
    0.187125       3231.45       3217.23
    0.187624       3211.78        3200.6
    0.188123       3192.19       3184.08
    0.188622       3172.69       3167.69
    0.189121       3153.31       3151.41
     0.18962       3134.06       3135.25
    0.190119       3114.96       3119.21
    0.190618       3096.02       3103.28
    0.191117       3077.26       3087.47
    0.191616        3058.7       3071.77
    0.192115       3040.33       3056.18
    0.192614       3022.19        3040.7
    0.193113       3004.28       3025.34
    0.193612       2986.61       3010.08
    0.194111       2969.19       2994.93
     0.19461       2952.04       2979.88
    0.195109       2935.14       2964.95
    0.195608       2918.52       2950.11
    0.196107       2902.18       2935.38
    0.196606       2886.12       2920.76
    0.197105       2870.35       2906.24
    0.197604       2854.87       2891.81
    0.198103       2839.67       2877.49
    0.198602       2824.76       2863.27
    0.199101       2810.13       2849.14
      0.1996       2795.79       2835.12
    0.200099       2781.73       2821.19
    0.200598       2767.94       2807.36
    0.201097       2754.43       2793.62
    0.201596       2741.18       2779.97
    0.202095       2728.18       2766.42
    0.202594       2715.44       2752.96
    0.203093       2702.94        2739.6
    0.203592       2690.67       2726.32
    0.204091       2678.63       2713.14
     0.20459        2666.8       2700.04
    0.205089       2655.17       2687.04
    0.205588       2643.74       2674.12
    0.206087       2632.49       2661.29
    0.206586        2621.4       2648.54
    0.207085       2610.48       2635.88
    0.207584        2599.7       2623.31
    0.208083       2589.06       2610.82
    0.208582       2578.54       2598.41
    0.209081       2568.13       2586.08
     0.20958       2557.83       2573.84
    0.210079       2547.61       2561.68
    0.210578       2537.47        2549.6
    0.211077        2527.4        2537.6
    0.211576       2517.38       2525.68
    0.212075       2507.41       2513.83
    0.212574       2497.48       2502.07
    0.213073       2487.58       2490.38
    0.213572       2477.69       2478.77
    0.214071       2467.82       2467.23
     0.21457       2457.94       2455.77
    0.215069       2448.07       2444.39
    0.215568       2438.18       2433.08
    0.216067       2428.28       2421.84
    0.216566       2418.35       2410.67
    0.217065        2408.4       2399.58
    0.217564       2398.42       2388.56
    0.218063        2388.4       2377.61
    0.218562       2378.35       2366.73
    0.219061       2368.27       2355.92
     0.21956       2358.14       2345.18
    0.220059       2347.97       2334.51
    0.220558       2337.77        2323.9
    0.221057       2327.52       2313.37
    0.221556       2317.24        2302.9
    0.222055       2306.92        2292.5
    0.222554       2296.57       2282.16
    0.223053       2286.18       2271.89
    0.223552       2275.77       2261.68
    0.224051       2265.33       2251.54
     0.22455       2254.88       2241.46
    0.225049        2244.4       2231.45
    0.225548       2233.92       2221.49
    0.226047       2223.43        2211.6
    0.226546       2212.93       2201.77
    0.227045       2202.44       2192.01
    0.227544       2191.96        2182.3
    0.228043        2181.5       2172.66
    0.228542       2171.06       2163.07
    0.229041       2160.64       2153.54
     0.22954       2150.25       2144.08
    0.230039       2139.91       2134.67
    0.230538       2129.61       2125.32
    0.231037       2119.35       2116.02
    0.231536       2109.16       2106.78
    0.232035       2099.02        2097.6
    0.232534       2088.95       2088.48
    0.233033       2078.95       2079.41
    0.233532       2069.03        2070.4
    0.234031       2059.19       2061.44
     0.23453       2049.43       2052.54
    0.235029       2039.76       2043.69
    0.235528       2030.18       2034.89
    0.236027        2020.7       2026.15
    0.236526       2011.31       2017.46
    0.237025       2002.03       2008.82
    0.237524       1992.85       2000.23
    0.238023       1983.77        1991.7
    0.238522        1974.8       1983.21
    0.239021       1965.94       1974.78
     0.23952       1957.19        1966.4
    0.240019       1948.55       1958.06
    0.240518       1940.01       1949.78
    0.241017       1931.59       1941.55
    0.241516       1923.27       1933.36
    0.242015       1915.07       1925.23
